## w(eV)         sigma(Sm^-1)     kappa(W(mK)^-1)        L12/e(Am^-1)      L22/e^2(Wm^-1)
    0.01              539832             902.668         -1.1261e+07          3.2042e+08
    0.03              539827             902.655         -1.1261e+07         3.20419e+08
    0.05              539819             902.631        -1.12609e+07         3.20415e+08
    0.07              539806             902.595        -1.12607e+07         3.20409e+08
    0.09              539789             902.546        -1.12604e+07         3.20402e+08
    0.11              539768             902.485        -1.12601e+07         3.20393e+08
    0.13              539742             902.412        -1.12598e+07         3.20382e+08
    0.15              539712             902.327        -1.12593e+07         3.20369e+08
    0.17              539678              902.23        -1.12588e+07         3.20354e+08
    0.19              539640             902.121        -1.12583e+07         3.20338e+08
    0.21              539597                 902        -1.12577e+07         3.20319e+08
    0.23              539550             901.866         -1.1257e+07         3.20299e+08
    0.25              539499             901.721        -1.12563e+07         3.20277e+08
    0.27              539443             901.563        -1.12555e+07         3.20253e+08
    0.29              539384             901.393        -1.12546e+07         3.20227e+08
    0.31              539320             901.211        -1.12537e+07           3.202e+08
    0.33              539251             901.017        -1.12527e+07          3.2017e+08
    0.35              539179             900.811        -1.12517e+07         3.20139e+08
    0.37              539102             900.593        -1.12506e+07         3.20106e+08
    0.39              539021             900.363        -1.12494e+07         3.20071e+08
    0.41              538936             900.121        -1.12482e+07         3.20034e+08
    0.43              538846             899.867        -1.12469e+07         3.19995e+08
    0.45              538752             899.601        -1.12456e+07         3.19955e+08
    0.47              538654             899.323        -1.12442e+07         3.19913e+08
    0.49              538552             899.033        -1.12427e+07         3.19869e+08
    0.51              538445             898.731        -1.12412e+07         3.19823e+08
    0.53              538334             898.417        -1.12396e+07         3.19775e+08
    0.55              538219             898.091        -1.12379e+07         3.19725e+08
    0.57              538100             897.754        -1.12362e+07         3.19674e+08
    0.59              537976             897.404        -1.12345e+07         3.19621e+08
    0.61              537849             897.042        -1.12326e+07         3.19565e+08
    0.63              537716             896.669        -1.12307e+07         3.19508e+08
    0.65              537580             896.284        -1.12288e+07          3.1945e+08
    0.67              537440             895.887        -1.12268e+07         3.19389e+08
    0.69              537295             895.478        -1.12247e+07         3.19327e+08
    0.71              537146             895.058        -1.12225e+07         3.19263e+08
    0.73              536992             894.626        -1.12203e+07         3.19196e+08
    0.75              536835             894.182        -1.12181e+07         3.19129e+08
    0.77              536673             893.726        -1.12157e+07         3.19059e+08
    0.79              536507             893.259        -1.12134e+07         3.18987e+08
    0.81              536337              892.78        -1.12109e+07         3.18914e+08
    0.83              536162              892.29        -1.12084e+07         3.18839e+08
    0.85              535984             891.788        -1.12058e+07         3.18762e+08
    0.87              535801             891.274        -1.12032e+07         3.18683e+08
    0.89              535614             890.749        -1.12005e+07         3.18603e+08
    0.91              535422             890.212        -1.11978e+07          3.1852e+08
    0.93              535227             889.664        -1.11949e+07         3.18436e+08
    0.95              535027             889.105        -1.11921e+07          3.1835e+08
    0.97              534823             888.534        -1.11891e+07         3.18262e+08
    0.99              534615             887.952        -1.11861e+07         3.18173e+08
    1.01              534403             887.358        -1.11831e+07         3.18081e+08
    1.03              534186             886.753        -1.11799e+07         3.17988e+08
    1.05              533965             886.137        -1.11767e+07         3.17893e+08
    1.07              533740             885.509        -1.11735e+07         3.17796e+08
    1.09              533511              884.87        -1.11702e+07         3.17697e+08
    1.11              533277             884.221        -1.11668e+07         3.17597e+08
    1.13              533040              883.56        -1.11634e+07         3.17495e+08
    1.15              532798             882.887        -1.11599e+07         3.17391e+08
    1.17              532552             882.204        -1.11563e+07         3.17285e+08
    1.19              532302              881.51        -1.11527e+07         3.17177e+08
    1.21              532048             880.805         -1.1149e+07         3.17068e+08
    1.23              531789             880.088        -1.11453e+07         3.16957e+08
    1.25              531526             879.361        -1.11415e+07         3.16844e+08
    1.27              531259             878.623        -1.11376e+07         3.16729e+08
    1.29              530988             877.874        -1.11337e+07         3.16612e+08
    1.31              530713             877.115        -1.11297e+07         3.16494e+08
    1.33              530434             876.344        -1.11256e+07         3.16374e+08
    1.35              530150             875.563        -1.11215e+07         3.16252e+08
    1.37              529863             874.771        -1.11173e+07         3.16129e+08
    1.39              529571             873.968        -1.11131e+07         3.16003e+08
    1.41              529275             873.155        -1.11088e+07         3.15876e+08
    1.43              528975             872.332        -1.11044e+07         3.15747e+08
    1.45              528670             871.497           -1.11e+07         3.15616e+08
    1.47              528362             870.653        -1.10955e+07         3.15484e+08
    1.49              528049             869.798         -1.1091e+07         3.15349e+08
    1.51              527733             868.932        -1.10864e+07         3.15213e+08
    1.53              527412             868.056        -1.10817e+07         3.15076e+08
    1.55              527087              867.17         -1.1077e+07         3.14936e+08
    1.57              526758             866.274        -1.10722e+07         3.14795e+08
    1.59              526425             865.367        -1.10673e+07         3.14652e+08
    1.61              526087              864.45        -1.10624e+07         3.14507e+08
    1.63              525746             863.523        -1.10574e+07          3.1436e+08
    1.65              525400             862.586        -1.10523e+07         3.14212e+08
    1.67              525051             861.639        -1.10472e+07         3.14062e+08
    1.69              524697             860.682         -1.1042e+07          3.1391e+08
    1.71              524339             859.716        -1.10368e+07         3.13756e+08
    1.73              523977             858.739        -1.10315e+07         3.13601e+08
    1.75              523611             857.752        -1.10261e+07         3.13444e+08
    1.77              523241             856.756        -1.10207e+07         3.13285e+08
    1.79              522867              855.75        -1.10152e+07         3.13125e+08
    1.81              522489             854.734        -1.10097e+07         3.12962e+08
    1.83              522107             853.709        -1.10041e+07         3.12798e+08
    1.85              521721             852.674        -1.09984e+07         3.12633e+08
    1.87              521330              851.63        -1.09926e+07         3.12465e+08
    1.89              520936             850.576        -1.09868e+07         3.12296e+08
    1.91              520537             849.512         -1.0981e+07         3.12125e+08
    1.93              520135              848.44         -1.0975e+07         3.11953e+08
    1.95              519728             847.358        -1.09691e+07         3.11778e+08
    1.97              519318             846.267         -1.0963e+07         3.11602e+08
    1.99              518903             845.166        -1.09569e+07         3.11424e+08
    2.01              518484             844.057        -1.09507e+07         3.11245e+08
    2.03              518062             842.938        -1.09445e+07         3.11064e+08
    2.05              517635              841.81        -1.09381e+07         3.10881e+08
    2.07              517204             840.674        -1.09318e+07         3.10696e+08
    2.09              516770             839.528        -1.09253e+07          3.1051e+08
    2.11              516331             838.374        -1.09188e+07         3.10322e+08
    2.13              515888              837.21        -1.09123e+07         3.10132e+08
    2.15              515442             836.038        -1.09057e+07         3.09941e+08
    2.17              514991             834.857         -1.0899e+07         3.09747e+08
    2.19              514536             833.668        -1.08922e+07         3.09553e+08
    2.21              514078              832.47        -1.08854e+07         3.09356e+08
    2.23              513615             831.264        -1.08785e+07         3.09158e+08
    2.25              513149             830.049        -1.08716e+07         3.08958e+08
    2.27              512678             828.825        -1.08646e+07         3.08756e+08
    2.29              512204             827.593        -1.08575e+07         3.08553e+08
    2.31              511726             826.353        -1.08504e+07         3.08348e+08
    2.33              511243             825.105        -1.08432e+07         3.08142e+08
    2.35              510757             823.849        -1.08359e+07         3.07933e+08
    2.37              510267             822.584        -1.08286e+07         3.07723e+08
    2.39              509773             821.311        -1.08212e+07         3.07512e+08
    2.41              509275             820.031        -1.08137e+07         3.07298e+08
    2.43              508773             818.742        -1.08062e+07         3.07083e+08
    2.45              508268             817.446        -1.07987e+07         3.06867e+08
    2.47              507758             816.141         -1.0791e+07         3.06648e+08
    2.49              507245             814.829        -1.07833e+07         3.06428e+08
    2.51              506727             813.509        -1.07755e+07         3.06207e+08
    2.53              506206             812.182        -1.07677e+07         3.05983e+08
    2.55              505681             810.847        -1.07598e+07         3.05759e+08
    2.57              505152             809.504        -1.07518e+07         3.05532e+08
    2.59              504619             808.154        -1.07438e+07         3.05304e+08
    2.61              504082             806.797        -1.07357e+07         3.05074e+08
    2.63              503542             805.432        -1.07275e+07         3.04842e+08
    2.65              502997              804.06        -1.07193e+07         3.04609e+08
    2.67              502449             802.681         -1.0711e+07         3.04374e+08
    2.69              501897             801.294        -1.07027e+07         3.04138e+08
    2.71              501342             799.901        -1.06943e+07         3.03899e+08
    2.73              500782               798.5        -1.06858e+07          3.0366e+08
    2.75              500219             797.093        -1.06772e+07         3.03418e+08
    2.77              499651             795.678        -1.06686e+07         3.03175e+08
    2.79              499080             794.257          -1.066e+07         3.02931e+08
    2.81              498506             792.829        -1.06512e+07         3.02684e+08
    2.83              497927             791.394        -1.06424e+07         3.02436e+08
    2.85              497345             789.952        -1.06336e+07         3.02187e+08
    2.87              496759             788.504        -1.06246e+07         3.01936e+08
    2.89              496169              787.05        -1.06156e+07         3.01683e+08
    2.91              495576             785.589        -1.06066e+07         3.01428e+08
    2.93              494979             784.121        -1.05974e+07         3.01172e+08
    2.95              494378             782.647        -1.05883e+07         3.00915e+08
    2.97              493773             781.167         -1.0579e+07         3.00655e+08
    2.99              493165              779.68        -1.05697e+07         3.00394e+08
    3.01              492553             778.188        -1.05603e+07         3.00132e+08
    3.03              491937             776.689        -1.05508e+07         2.99868e+08
    3.05              491317             775.184        -1.05413e+07         2.99602e+08
    3.07              490694             773.674        -1.05318e+07         2.99335e+08
    3.09              490068             772.157        -1.05221e+07         2.99066e+08
    3.11              489437             770.634        -1.05124e+07         2.98795e+08
    3.13              488803             769.106        -1.05026e+07         2.98523e+08
    3.15              488166             767.572        -1.04928e+07         2.98249e+08
    3.17              487524             766.032        -1.04829e+07         2.97974e+08
    3.19              486879             764.487        -1.04729e+07         2.97697e+08
    3.21              486231             762.936        -1.04629e+07         2.97419e+08
    3.23              485579              761.38        -1.04528e+07         2.97139e+08
    3.25              484923             759.818        -1.04426e+07         2.96857e+08
    3.27              484264             758.251        -1.04324e+07         2.96574e+08
    3.29              483601             756.678        -1.04221e+07         2.96289e+08
    3.31              482934             755.101        -1.04117e+07         2.96002e+08
    3.33              482264             753.518        -1.04013e+07         2.95714e+08
    3.35              481591              751.93        -1.03908e+07         2.95425e+08
    3.37              480914             750.337        -1.03803e+07         2.95133e+08
    3.39              480233             748.739        -1.03696e+07         2.94841e+08
    3.41              479549             747.136        -1.03589e+07         2.94546e+08
    3.43              478861             745.528        -1.03482e+07          2.9425e+08
    3.45              478170             743.915        -1.03374e+07         2.93953e+08
    3.47              477476             742.298        -1.03265e+07         2.93654e+08
    3.49              476778             740.676        -1.03155e+07         2.93353e+08
    3.51              476076             739.049        -1.03045e+07         2.93051e+08
    3.53              475371             737.418        -1.02935e+07         2.92747e+08
    3.55              474662             735.782        -1.02823e+07         2.92442e+08
    3.57              473950             734.142        -1.02711e+07         2.92135e+08
    3.59              473235             732.497        -1.02598e+07         2.91826e+08
    3.61              472516             730.848        -1.02485e+07         2.91516e+08
    3.63              471794             729.195        -1.02371e+07         2.91205e+08
    3.65              471069             727.538        -1.02256e+07         2.90892e+08
    3.67              470340             725.876        -1.02141e+07         2.90577e+08
    3.69              469607              724.21        -1.02025e+07         2.90261e+08
    3.71              468871             722.541        -1.01908e+07         2.89943e+08
    3.73              468132             720.867        -1.01791e+07         2.89623e+08
    3.75              467390             719.189        -1.01673e+07         2.89303e+08
    3.77              466644             717.508        -1.01554e+07          2.8898e+08
    3.79              465895             715.823        -1.01435e+07         2.88656e+08
    3.81              465143             714.134        -1.01315e+07         2.88331e+08
    3.83              464387             712.441        -1.01194e+07         2.88003e+08
    3.85              463628             710.745        -1.01073e+07         2.87675e+08
    3.87              462865             709.045        -1.00951e+07         2.87345e+08
    3.89              462100             707.342        -1.00829e+07         2.87013e+08
    3.91              461331             705.635        -1.00705e+07          2.8668e+08
    3.93              460559             703.925        -1.00582e+07         2.86345e+08
    3.95              459784             702.212        -1.00457e+07         2.86008e+08
    3.97              459005             700.495        -1.00332e+07         2.85671e+08
    3.99              458223             698.775        -1.00206e+07         2.85331e+08
    4.01              457438             697.052         -1.0008e+07          2.8499e+08
    4.03              456650             695.326        -9.99524e+06         2.84648e+08
    4.05              455859             693.597        -9.98246e+06         2.84304e+08
    4.07              455064             691.865        -9.96962e+06         2.83958e+08
    4.09              454267              690.13        -9.95671e+06         2.83611e+08
    4.11              453466             688.392        -9.94374e+06         2.83262e+08
    4.13              452662             686.651         -9.9307e+06         2.82912e+08
    4.15              451855             684.907         -9.9176e+06         2.82561e+08
    4.17              451045             683.161        -9.90443e+06         2.82207e+08
    4.19              450232             681.412        -9.89119e+06         2.81853e+08
    4.21              449415              679.66         -9.8779e+06         2.81497e+08
    4.23              448596             677.906        -9.86453e+06         2.81139e+08
    4.25              447774             676.149         -9.8511e+06          2.8078e+08
    4.27              446948              674.39        -9.83761e+06         2.80419e+08
    4.29              446120             672.629        -9.82405e+06         2.80056e+08
    4.31              445288             670.865        -9.81043e+06         2.79693e+08
    4.33              444454             669.099        -9.79674e+06         2.79327e+08
    4.35              443616             667.331        -9.78299e+06          2.7896e+08
    4.37              442775              665.56        -9.76917e+06         2.78592e+08
    4.39              441932             663.788        -9.75529e+06         2.78222e+08
    4.41              441086             662.013        -9.74134e+06         2.77851e+08
    4.43              440236             660.236        -9.72733e+06         2.77478e+08
    4.45              439384             658.457        -9.71325e+06         2.77104e+08
