## w(eV)         sigma(Sm^-1)     kappa(W(mK)^-1)        L12/e(Am^-1)      L22/e^2(Wm^-1)
    0.01              539845             902.652        -1.12614e+07         3.20427e+08
    0.03              539841              902.64        -1.12613e+07         3.20425e+08
    0.05              539832             902.616        -1.12612e+07         3.20422e+08
    0.07              539820             902.579         -1.1261e+07         3.20416e+08
    0.09              539802             902.531        -1.12608e+07         3.20409e+08
    0.11              539781              902.47        -1.12605e+07         3.20399e+08
    0.13              539756             902.397        -1.12601e+07         3.20388e+08
    0.15              539726             902.312        -1.12597e+07         3.20375e+08
    0.17              539691             902.215        -1.12592e+07         3.20361e+08
    0.19              539653             902.106        -1.12586e+07         3.20344e+08
    0.21              539610             901.984         -1.1258e+07         3.20326e+08
    0.23              539563             901.851        -1.12573e+07         3.20306e+08
    0.25              539512             901.705        -1.12566e+07         3.20283e+08
    0.27              539457             901.547        -1.12558e+07          3.2026e+08
    0.29              539397             901.378         -1.1255e+07         3.20234e+08
    0.31              539333             901.196         -1.1254e+07         3.20206e+08
    0.33              539265             901.002        -1.12531e+07         3.20177e+08
    0.35              539192             900.796         -1.1252e+07         3.20145e+08
    0.37              539115             900.578        -1.12509e+07         3.20112e+08
    0.39              539034             900.348        -1.12498e+07         3.20077e+08
    0.41              538949             900.106        -1.12485e+07         3.20041e+08
    0.43              538860             899.852        -1.12473e+07         3.20002e+08
    0.45              538766             899.585        -1.12459e+07         3.19962e+08
    0.47              538668             899.307        -1.12445e+07         3.19919e+08
    0.49              538565             899.017         -1.1243e+07         3.19875e+08
    0.51              538459             898.715        -1.12415e+07         3.19829e+08
    0.53              538348             898.401        -1.12399e+07         3.19781e+08
    0.55              538233             898.076        -1.12383e+07         3.19732e+08
    0.57              538113             897.738        -1.12366e+07          3.1968e+08
    0.59              537990             897.388        -1.12348e+07         3.19627e+08
    0.61              537862             897.027         -1.1233e+07         3.19572e+08
    0.63              537730             896.654        -1.12311e+07         3.19515e+08
    0.65              537594             896.268        -1.12291e+07         3.19456e+08
    0.67              537453             895.872        -1.12271e+07         3.19396e+08
    0.69              537308             895.463         -1.1225e+07         3.19333e+08
    0.71              537159             895.042        -1.12229e+07         3.19269e+08
    0.73              537006              894.61        -1.12207e+07         3.19203e+08
    0.75              536848             894.166        -1.12184e+07         3.19135e+08
    0.77              536687             893.711        -1.12161e+07         3.19066e+08
    0.79              536521             893.244        -1.12137e+07         3.18994e+08
    0.81              536350             892.765        -1.12112e+07         3.18921e+08
    0.83              536176             892.274        -1.12087e+07         3.18846e+08
    0.85              535997             891.772        -1.12062e+07         3.18769e+08
    0.87              535814             891.259        -1.12035e+07          3.1869e+08
    0.89              535627             890.733        -1.12008e+07         3.18609e+08
    0.91              535436             890.197        -1.11981e+07         3.18527e+08
    0.93              535240             889.649        -1.11953e+07         3.18443e+08
    0.95              535041             889.089        -1.11924e+07         3.18357e+08
    0.97              534837             888.518        -1.11895e+07         3.18269e+08
    0.99              534628             887.936        -1.11864e+07         3.18179e+08
    1.01              534416             887.342        -1.11834e+07         3.18088e+08
    1.03              534199             886.737        -1.11803e+07         3.17995e+08
    1.05              533979             886.121        -1.11771e+07           3.179e+08
    1.07              533754             885.494        -1.11738e+07         3.17803e+08
    1.09              533524             884.855        -1.11705e+07         3.17704e+08
    1.11              533291             884.205        -1.11671e+07         3.17604e+08
    1.13              533053             883.544        -1.11637e+07         3.17501e+08
    1.15              532812             882.872        -1.11602e+07         3.17397e+08
    1.17              532566             882.189        -1.11567e+07         3.17292e+08
    1.19              532315             881.494         -1.1153e+07         3.17184e+08
    1.21              532061             880.789        -1.11494e+07         3.17075e+08
    1.23              531803             880.073        -1.11456e+07         3.16963e+08
    1.25              531540             879.346        -1.11418e+07          3.1685e+08
    1.27              531273             878.608        -1.11379e+07         3.16736e+08
    1.29              531002             877.859         -1.1134e+07         3.16619e+08
    1.31              530727             877.099          -1.113e+07         3.16501e+08
    1.33              530447             876.328         -1.1126e+07         3.16381e+08
    1.35              530164             875.547        -1.11219e+07         3.16259e+08
    1.37              529876             874.755        -1.11177e+07         3.16135e+08
    1.39              529584             873.953        -1.11134e+07          3.1601e+08
    1.41              529288              873.14        -1.11091e+07         3.15883e+08
    1.43              528988             872.316        -1.11048e+07         3.15754e+08
    1.45              528684             871.482        -1.11003e+07         3.15623e+08
    1.47              528375             870.637        -1.10959e+07          3.1549e+08
    1.49              528063             869.782        -1.10913e+07         3.15356e+08
    1.51              527746             868.916        -1.10867e+07          3.1522e+08
    1.53              527425              868.04         -1.1082e+07         3.15082e+08
    1.55              527100             867.154        -1.10773e+07         3.14943e+08
    1.57              526771             866.258        -1.10725e+07         3.14801e+08
    1.59              526438             865.351        -1.10676e+07         3.14658e+08
    1.61              526101             864.434        -1.10627e+07         3.14513e+08
    1.63              525759             863.508        -1.10577e+07         3.14367e+08
    1.65              525414             862.571        -1.10527e+07         3.14218e+08
    1.67              525064             861.624        -1.10475e+07         3.14068e+08
    1.69              524711             860.667        -1.10424e+07         3.13917e+08
    1.71              524353               859.7        -1.10371e+07         3.13763e+08
    1.73              523991             858.723        -1.10318e+07         3.13608e+08
    1.75              523625             857.737        -1.10265e+07         3.13451e+08
    1.77              523255              856.74         -1.1021e+07         3.13292e+08
    1.79              522881             855.734        -1.10156e+07         3.13131e+08
    1.81              522503             854.718          -1.101e+07         3.12969e+08
    1.83              522120             853.693        -1.10044e+07         3.12805e+08
    1.85              521734             852.658        -1.09987e+07         3.12639e+08
    1.87              521344             851.614         -1.0993e+07         3.12472e+08
    1.89              520949              850.56        -1.09872e+07         3.12303e+08
    1.91              520551             849.497        -1.09813e+07         3.12132e+08
    1.93              520148             848.424        -1.09754e+07         3.11959e+08
    1.95              519742             847.342        -1.09694e+07         3.11785e+08
    1.97              519331             846.251        -1.09633e+07         3.11609e+08
    1.99              518917              845.15        -1.09572e+07         3.11431e+08
    2.01              518498             844.041         -1.0951e+07         3.11251e+08
    2.03              518075             842.922        -1.09448e+07          3.1107e+08
    2.05              517649             841.794        -1.09385e+07         3.10887e+08
    2.07              517218             840.658        -1.09321e+07         3.10703e+08
    2.09              516783             839.512        -1.09257e+07         3.10516e+08
    2.11              516345             838.358        -1.09192e+07         3.10328e+08
    2.13              515902             837.194        -1.09126e+07         3.10139e+08
    2.15              515455             836.022         -1.0906e+07         3.09947e+08
    2.17              515005             834.842        -1.08993e+07         3.09754e+08
    2.19              514550             833.652        -1.08926e+07         3.09559e+08
    2.21              514091             832.454        -1.08857e+07         3.09363e+08
    2.23              513629             831.248        -1.08789e+07         3.09165e+08
    2.25              513162             830.033        -1.08719e+07         3.08965e+08
    2.27              512692             828.809        -1.08649e+07         3.08763e+08
    2.29              512218             827.578        -1.08578e+07          3.0856e+08
    2.31              511739             826.337        -1.08507e+07         3.08355e+08
    2.33              511257             825.089        -1.08435e+07         3.08148e+08
    2.35              510771             823.833        -1.08362e+07          3.0794e+08
    2.37              510281             822.568        -1.08289e+07          3.0773e+08
    2.39              509787             821.295        -1.08215e+07         3.07518e+08
    2.41              509289             820.015        -1.08141e+07         3.07305e+08
    2.43              508787             818.726        -1.08066e+07          3.0709e+08
    2.45              508281              817.43         -1.0799e+07         3.06873e+08
    2.47              507772             816.125        -1.07913e+07         3.06655e+08
    2.49              507258             814.813        -1.07836e+07         3.06435e+08
    2.51              506741             813.493        -1.07759e+07         3.06213e+08
    2.53              506220             812.166         -1.0768e+07          3.0599e+08
    2.55              505694             810.831        -1.07601e+07         3.05765e+08
    2.57              505165             809.488        -1.07522e+07         3.05539e+08
    2.59              504633             808.138        -1.07441e+07          3.0531e+08
    2.61              504096             806.781         -1.0736e+07          3.0508e+08
    2.63              503555             805.416        -1.07279e+07         3.04849e+08
    2.65              503011             804.044        -1.07197e+07         3.04616e+08
    2.67              502463             802.665        -1.07114e+07         3.04381e+08
    2.69              501911             801.278         -1.0703e+07         3.04144e+08
    2.71              501355             799.885        -1.06946e+07         3.03906e+08
    2.73              500796             798.484        -1.06861e+07         3.03666e+08
    2.75              500232             797.077        -1.06776e+07         3.03425e+08
    2.77              499665             795.662         -1.0669e+07         3.03182e+08
    2.79              499094             794.241        -1.06603e+07         3.02937e+08
    2.81              498519             792.813        -1.06516e+07         3.02691e+08
    2.83              497941             791.378        -1.06428e+07         3.02443e+08
    2.85              497359             789.936        -1.06339e+07         3.02193e+08
    2.87              496773             788.488         -1.0625e+07         3.01942e+08
    2.89              496183             787.033         -1.0616e+07         3.01689e+08
    2.91              495589             785.572        -1.06069e+07         3.01435e+08
    2.93              494992             784.105        -1.05978e+07         3.01179e+08
    2.95              494391             782.631        -1.05886e+07         3.00921e+08
    2.97              493787             781.151        -1.05793e+07         3.00662e+08
    2.99              493178             779.664          -1.057e+07         3.00401e+08
    3.01              492566             778.172        -1.05606e+07         3.00139e+08
    3.03              491951             776.673        -1.05512e+07         2.99874e+08
    3.05              491331             775.168        -1.05417e+07         2.99609e+08
    3.07              490708             773.657        -1.05321e+07         2.99341e+08
    3.09              490081             772.141        -1.05224e+07         2.99072e+08
    3.11              489451             770.618        -1.05127e+07         2.98802e+08
    3.13              488817              769.09         -1.0503e+07          2.9853e+08
    3.15              488179             767.556        -1.04931e+07         2.98256e+08
    3.17              487538             766.016        -1.04832e+07         2.97981e+08
    3.19              486893             764.471        -1.04733e+07         2.97704e+08
    3.21              486245              762.92        -1.04632e+07         2.97425e+08
    3.23              485592             761.363        -1.04531e+07         2.97145e+08
    3.25              484937             759.802         -1.0443e+07         2.96864e+08
    3.27              484277             758.234        -1.04327e+07          2.9658e+08
    3.29              483615             756.662        -1.04224e+07         2.96295e+08
    3.31              482948             755.084        -1.04121e+07         2.96009e+08
    3.33              482278             753.501        -1.04016e+07         2.95721e+08
    3.35              481605             751.913        -1.03912e+07         2.95431e+08
    3.37              480927              750.32        -1.03806e+07          2.9514e+08
    3.39              480247             748.722          -1.037e+07         2.94847e+08
    3.41              479563             747.119        -1.03593e+07         2.94553e+08
    3.43              478875             745.511        -1.03485e+07         2.94257e+08
    3.45              478184             743.899        -1.03377e+07         2.93959e+08
    3.47              477489             742.281        -1.03268e+07          2.9366e+08
    3.49              476791             740.659        -1.03159e+07          2.9336e+08
    3.51              476090             739.033        -1.03049e+07         2.93058e+08
    3.53              475385             737.401        -1.02938e+07         2.92754e+08
    3.55              474676             735.765        -1.02827e+07         2.92448e+08
    3.57              473964             734.125        -1.02714e+07         2.92142e+08
    3.59              473249             732.481        -1.02602e+07         2.91833e+08
    3.61              472530             730.832        -1.02488e+07         2.91523e+08
    3.63              471808             729.178        -1.02374e+07         2.91211e+08
    3.65              471082             727.521         -1.0226e+07         2.90898e+08
    3.67              470353             725.859        -1.02144e+07         2.90584e+08
    3.69              469621             724.194        -1.02028e+07         2.90267e+08
    3.71              468885             722.524        -1.01911e+07          2.8995e+08
    3.73              468146              720.85        -1.01794e+07          2.8963e+08
    3.75              467404             719.173        -1.01676e+07         2.89309e+08
    3.77              466658             717.492        -1.01558e+07         2.88987e+08
    3.79              465909             715.806        -1.01438e+07         2.88663e+08
    3.81              465156             714.117        -1.01318e+07         2.88337e+08
    3.83              464400             712.425        -1.01198e+07          2.8801e+08
    3.85              463641             710.729        -1.01076e+07         2.87681e+08
    3.87              462879             709.029        -1.00955e+07         2.87351e+08
    3.89              462114             707.326        -1.00832e+07          2.8702e+08
    3.91              461345             705.619        -1.00709e+07         2.86686e+08
    3.93              460573             703.909        -1.00585e+07         2.86351e+08
    3.95              459797             702.195         -1.0046e+07         2.86015e+08
    3.97              459019             700.479        -1.00335e+07         2.85677e+08
    3.99              458237             698.759        -1.00209e+07         2.85338e+08
    4.01              457452             697.036        -1.00083e+07         2.84997e+08
    4.03              456664             695.309        -9.99558e+06         2.84654e+08
    4.05              455873              693.58         -9.9828e+06          2.8431e+08
    4.07              455078             691.848        -9.96996e+06         2.83965e+08
    4.09              454280             690.113        -9.95705e+06         2.83618e+08
    4.11              453480             688.375        -9.94408e+06         2.83269e+08
    4.13              452676             686.634        -9.93104e+06         2.82919e+08
    4.15              451869              684.89        -9.91794e+06         2.82567e+08
    4.17              451059             683.144        -9.90477e+06         2.82214e+08
    4.19              450245             681.395        -9.89153e+06         2.81859e+08
    4.21              449429             679.643        -9.87824e+06         2.81503e+08
    4.23              448610             677.889        -9.86487e+06         2.81145e+08
    4.25              447787             676.133        -9.85144e+06         2.80786e+08
    4.27              446962             674.374        -9.83795e+06         2.80425e+08
    4.29              446133             672.612        -9.82439e+06         2.80063e+08
    4.31              445302             670.848        -9.81077e+06         2.79699e+08
    4.33              444467             669.082        -9.79708e+06         2.79334e+08
    4.35              443630             667.314        -9.78333e+06         2.78967e+08
    4.37              442789             665.543        -9.76951e+06         2.78599e+08
    4.39              441946             663.771        -9.75563e+06         2.78229e+08
    4.41              441099             661.996        -9.74168e+06         2.77858e+08
    4.43              440250             660.219        -9.72767e+06         2.77485e+08
    4.45              439398              658.44        -9.71359e+06          2.7711e+08
