## w(eV)         sigma(Sm^-1)     kappa(W(mK)^-1)        L12/e(Am^-1)      L22/e^2(Wm^-1)
    0.01              360935             628.668        -7.19399e+06         2.02943e+08
    0.03              360932              628.66        -7.19395e+06         2.02941e+08
    0.05              360925             628.644        -7.19387e+06         2.02939e+08
    0.07              360916              628.62        -7.19374e+06         2.02936e+08
    0.09              360903             628.588        -7.19358e+06         2.02931e+08
    0.11              360887             628.548        -7.19337e+06         2.02926e+08
    0.13              360868               628.5        -7.19312e+06         2.02919e+08
    0.15              360845             628.444        -7.19283e+06         2.02911e+08
    0.17              360820              628.38         -7.1925e+06         2.02902e+08
    0.19              360791             628.309        -7.19213e+06         2.02892e+08
    0.21              360759             628.229        -7.19172e+06         2.02881e+08
    0.23              360724             628.141        -7.19127e+06         2.02868e+08
    0.25              360685             628.045        -7.19077e+06         2.02855e+08
    0.27              360643             627.942        -7.19024e+06          2.0284e+08
    0.29              360599              627.83        -7.18966e+06         2.02824e+08
    0.31              360551             627.711        -7.18904e+06         2.02807e+08
    0.33              360499             627.583        -7.18838e+06         2.02789e+08
    0.35              360445             627.448        -7.18768e+06          2.0277e+08
    0.37              360387             627.304        -7.18694e+06          2.0275e+08
    0.39              360327             627.153        -7.18615e+06         2.02728e+08
    0.41              360263             626.994        -7.18533e+06         2.02706e+08
    0.43              360196             626.827        -7.18446e+06         2.02682e+08
    0.45              360125             626.652        -7.18355e+06         2.02657e+08
    0.47              360052             626.469         -7.1826e+06         2.02631e+08
    0.49              359975             626.278        -7.18161e+06         2.02604e+08
    0.51              359895              626.08        -7.18058e+06         2.02576e+08
    0.53              359812             625.873        -7.17951e+06         2.02547e+08
    0.55              359726             625.659        -7.17839e+06         2.02516e+08
    0.57              359636             625.437        -7.17724e+06         2.02485e+08
    0.59              359544             625.207        -7.17604e+06         2.02452e+08
    0.61              359448             624.969         -7.1748e+06         2.02418e+08
    0.63              359349             624.723        -7.17352e+06         2.02383e+08
    0.65              359247              624.47         -7.1722e+06         2.02347e+08
    0.67              359142             624.209        -7.17084e+06          2.0231e+08
    0.69              359033              623.94        -7.16943e+06         2.02272e+08
    0.71              358921             623.663        -7.16799e+06         2.02232e+08
    0.73              358807             623.378         -7.1665e+06         2.02192e+08
    0.75              358689             623.086        -7.16497e+06          2.0215e+08
    0.77              358568             622.786         -7.1634e+06         2.02107e+08
    0.79              358443             622.478        -7.16179e+06         2.02063e+08
    0.81              358316             622.163        -7.16014e+06         2.02018e+08
    0.83              358185             621.839        -7.15845e+06         2.01972e+08
    0.85              358052             621.509        -7.15671e+06         2.01925e+08
    0.87              357915              621.17        -7.15494e+06         2.01877e+08
    0.89              357775             620.824        -7.15312e+06         2.01827e+08
    0.91              357632              620.47        -7.15126e+06         2.01776e+08
    0.93              357485             620.109        -7.14936e+06         2.01725e+08
    0.95              357336              619.74        -7.14742e+06         2.01672e+08
    0.97              357184             619.363        -7.14543e+06         2.01618e+08
    0.99              357028             618.979        -7.14341e+06         2.01563e+08
    1.01              356869             618.588        -7.14134e+06         2.01506e+08
    1.03              356707             618.188        -7.13923e+06         2.01449e+08
    1.05              356542             617.782        -7.13708e+06          2.0139e+08
    1.07              356374             617.367        -7.13489e+06         2.01331e+08
    1.09              356203             616.946        -7.13266e+06          2.0127e+08
    1.11              356029             616.517        -7.13038e+06         2.01208e+08
    1.13              355851              616.08        -7.12806e+06         2.01145e+08
    1.15              355671             615.636        -7.12571e+06         2.01081e+08
    1.17              355487             615.185        -7.12331e+06         2.01016e+08
    1.19              355300             614.726        -7.12087e+06          2.0095e+08
    1.21              355111              614.26        -7.11838e+06         2.00882e+08
    1.23              354918             613.786        -7.11586e+06         2.00814e+08
    1.25              354722             613.305        -7.11329e+06         2.00744e+08
    1.27              354523             612.817        -7.11069e+06         2.00673e+08
    1.29              354321             612.322        -7.10804e+06         2.00601e+08
    1.31              354116             611.819        -7.10535e+06         2.00528e+08
    1.33              353907             611.309        -7.10261e+06         2.00454e+08
    1.35              353696             610.792        -7.09984e+06         2.00379e+08
    1.37              353482             610.268        -7.09702e+06         2.00303e+08
    1.39              353264             609.736        -7.09416e+06         2.00225e+08
    1.41              353044             609.198        -7.09126e+06         2.00146e+08
    1.43              352820             608.652        -7.08832e+06         2.00067e+08
    1.45              352594             608.099        -7.08534e+06         1.99986e+08
    1.47              352364             607.539        -7.08232e+06         1.99904e+08
    1.49              352132             606.972        -7.07925e+06         1.99821e+08
    1.51              351896             606.399        -7.07614e+06         1.99737e+08
    1.53              351658             605.818        -7.07299e+06         1.99652e+08
    1.55              351416              605.23         -7.0698e+06         1.99565e+08
    1.57              351171             604.635        -7.06656e+06         1.99478e+08
    1.59              350924             604.033        -7.06329e+06         1.99389e+08
    1.61              350673             603.424        -7.05997e+06           1.993e+08
    1.63              350420             602.809        -7.05661e+06         1.99209e+08
    1.65              350163             602.186        -7.05321e+06         1.99117e+08
    1.67              349903             601.557        -7.04976e+06         1.99024e+08
    1.69              349641             600.921        -7.04628e+06          1.9893e+08
    1.71              349375             600.278        -7.04275e+06         1.98835e+08
    1.73              349107             599.629        -7.03918e+06         1.98738e+08
    1.75              348835             598.973        -7.03557e+06         1.98641e+08
    1.77              348561              598.31        -7.03192e+06         1.98542e+08
    1.79              348284              597.64        -7.02822e+06         1.98443e+08
    1.81              348003             596.964        -7.02449e+06         1.98342e+08
    1.83              347720             596.281        -7.02071e+06          1.9824e+08
    1.85              347434             595.592        -7.01688e+06         1.98137e+08
    1.87              347145             594.896        -7.01302e+06         1.98033e+08
    1.89              346853             594.194        -7.00912e+06         1.97928e+08
    1.91              346558             593.485        -7.00517e+06         1.97822e+08
    1.93              346260             592.769        -7.00118e+06         1.97714e+08
    1.95              345959             592.048        -6.99715e+06         1.97606e+08
    1.97              345656              591.32        -6.99307e+06         1.97496e+08
    1.99              345349             590.585        -6.98896e+06         1.97386e+08
    2.01              345040             589.844         -6.9848e+06         1.97274e+08
    2.03              344727             589.097         -6.9806e+06         1.97161e+08
    2.05              344412             588.344        -6.97636e+06         1.97047e+08
    2.07              344094             587.584        -6.97207e+06         1.96932e+08
    2.09              343773             586.818        -6.96774e+06         1.96816e+08
    2.11              343450             586.046        -6.96337e+06         1.96699e+08
    2.13              343123             585.268        -6.95896e+06          1.9658e+08
    2.15              342794             584.484        -6.95451e+06         1.96461e+08
    2.17              342461             583.694        -6.95001e+06          1.9634e+08
    2.19              342126             582.897        -6.94548e+06         1.96219e+08
    2.21              341788             582.095         -6.9409e+06         1.96096e+08
    2.23              341448             581.287        -6.93627e+06         1.95972e+08
    2.25              341104             580.473        -6.93161e+06         1.95847e+08
    2.27              340758             579.652         -6.9269e+06         1.95721e+08
    2.29              340409             578.826        -6.92215e+06         1.95594e+08
    2.31              340057             577.994        -6.91736e+06         1.95466e+08
    2.33              339702             577.157        -6.91252e+06         1.95337e+08
    2.35              339345             576.313        -6.90765e+06         1.95207e+08
    2.37              338984             575.464        -6.90273e+06         1.95075e+08
    2.39              338621             574.609        -6.89777e+06         1.94943e+08
    2.41              338256             573.749        -6.89276e+06         1.94809e+08
    2.43              337887             572.882        -6.88772e+06         1.94674e+08
    2.45              337516              572.01        -6.88263e+06         1.94539e+08
    2.47              337142             571.133         -6.8775e+06         1.94402e+08
    2.49              336765              570.25        -6.87232e+06         1.94264e+08
    2.51              336386             569.362        -6.86711e+06         1.94125e+08
    2.53              336004             568.468        -6.86185e+06         1.93985e+08
    2.55              335619             567.568        -6.85655e+06         1.93844e+08
    2.57              335231             566.664        -6.85121e+06         1.93701e+08
    2.59              334841             565.754        -6.84582e+06         1.93558e+08
    2.61              334448             564.838        -6.84039e+06         1.93413e+08
    2.63              334053             563.918        -6.83492e+06         1.93268e+08
    2.65              333655             562.992        -6.82941e+06         1.93121e+08
    2.67              333254             562.061        -6.82385e+06         1.92974e+08
    2.69              332850             561.124        -6.81825e+06         1.92825e+08
    2.71              332444             560.183        -6.81261e+06         1.92675e+08
    2.73              332035             559.236        -6.80693e+06         1.92524e+08
    2.75              331624             558.285         -6.8012e+06         1.92372e+08
    2.77              331210             557.328        -6.79544e+06         1.92219e+08
    2.79              330794             556.366        -6.78962e+06         1.92065e+08
    2.81              330374               555.4        -6.78377e+06          1.9191e+08
    2.83              329953             554.428        -6.77788e+06         1.91753e+08
    2.85              329528             553.452        -6.77194e+06         1.91596e+08
    2.87              329101             552.471        -6.76596e+06         1.91438e+08
    2.89              328672             551.485        -6.75993e+06         1.91278e+08
    2.91              328240             550.494        -6.75387e+06         1.91117e+08
    2.93              327805             549.499        -6.74776e+06         1.90956e+08
    2.95              327368             548.498        -6.74161e+06         1.90793e+08
    2.97              326928             547.494        -6.73541e+06         1.90629e+08
    2.99              326486             546.484        -6.72918e+06         1.90464e+08
    3.01              326041              545.47         -6.7229e+06         1.90298e+08
    3.03              325594             544.451        -6.71658e+06         1.90131e+08
    3.05              325144             543.428        -6.71021e+06         1.89963e+08
    3.07              324692             542.401         -6.7038e+06         1.89794e+08
    3.09              324237             541.369        -6.69735e+06         1.89624e+08
    3.11              323780             540.333        -6.69086e+06         1.89453e+08
    3.13              323320             539.292        -6.68433e+06          1.8928e+08
    3.15              322858             538.247        -6.67775e+06         1.89107e+08
    3.17              322394             537.198        -6.67113e+06         1.88932e+08
    3.19              321927             536.144        -6.66447e+06         1.88757e+08
    3.21              321457             535.087        -6.65777e+06          1.8858e+08
    3.23              320986             534.025        -6.65102e+06         1.88403e+08
    3.25              320511             532.959        -6.64423e+06         1.88224e+08
    3.27              320035             531.889         -6.6374e+06         1.88044e+08
    3.29              319556             530.815        -6.63052e+06         1.87863e+08
    3.31              319074             529.737         -6.6236e+06         1.87682e+08
    3.33              318590             528.655        -6.61665e+06         1.87499e+08
    3.35              318104             527.569        -6.60964e+06         1.87315e+08
    3.37              317616             526.479         -6.6026e+06          1.8713e+08
    3.39              317125             525.385        -6.59551e+06         1.86943e+08
    3.41              316632             524.288        -6.58838e+06         1.86756e+08
    3.43              316136             523.187        -6.58121e+06         1.86568e+08
    3.45              315638             522.082        -6.57399e+06         1.86379e+08
    3.47              315138             520.973        -6.56674e+06         1.86188e+08
    3.49              314636             519.861        -6.55944e+06         1.85997e+08
    3.51              314131             518.745         -6.5521e+06         1.85805e+08
    3.53              313624             517.626        -6.54471e+06         1.85611e+08
    3.55              313115             516.503        -6.53729e+06         1.85417e+08
    3.57              312603             515.377        -6.52982e+06         1.85221e+08
    3.59              312089             514.247        -6.52231e+06         1.85025e+08
    3.61              311573             513.113        -6.51475e+06         1.84827e+08
    3.63              311055             511.977        -6.50716e+06         1.84628e+08
    3.65              310535             510.837        -6.49952e+06         1.84428e+08
    3.67              310012             509.694        -6.49184e+06         1.84228e+08
    3.69              309487             508.547        -6.48412e+06         1.84026e+08
    3.71              308960             507.397        -6.47635e+06         1.83823e+08
    3.73              308431             506.244        -6.46855e+06         1.83619e+08
    3.75              307899             505.088         -6.4607e+06         1.83414e+08
    3.77              307366             503.929        -6.45281e+06         1.83208e+08
    3.79              306830             502.767        -6.44487e+06         1.83001e+08
    3.81              306292             501.602         -6.4369e+06         1.82793e+08
    3.83              305752             500.434        -6.42888e+06         1.82584e+08
    3.85              305210             499.263        -6.42082e+06         1.82374e+08
    3.87              304666             498.089        -6.41272e+06         1.82163e+08
    3.89              304119             496.912        -6.40458e+06          1.8195e+08
    3.91              303571             495.732        -6.39639e+06         1.81737e+08
    3.93              303020              494.55        -6.38816e+06         1.81523e+08
    3.95              302468             493.365         -6.3799e+06         1.81308e+08
    3.97              301913             492.177        -6.37159e+06         1.81091e+08
    3.99              301357             490.986        -6.36323e+06         1.80874e+08
    4.01              300798             489.793        -6.35484e+06         1.80656e+08
    4.03              300237             488.597         -6.3464e+06         1.80436e+08
    4.05              299674             487.399        -6.33793e+06         1.80216e+08
    4.07              299110             486.198        -6.32941e+06         1.79994e+08
    4.09              298543             484.995        -6.32085e+06         1.79772e+08
    4.11              297974             483.789        -6.31224e+06         1.79548e+08
    4.13              297403             482.581         -6.3036e+06         1.79324e+08
    4.15              296831             481.371        -6.29492e+06         1.79098e+08
    4.17              296256             480.158        -6.28619e+06         1.78872e+08
    4.19              295679             478.943        -6.27742e+06         1.78644e+08
    4.21              295101             477.726        -6.26861e+06         1.78416e+08
    4.23              294521             476.506        -6.25976e+06         1.78186e+08
    4.25              293938             475.285        -6.25087e+06         1.77956e+08
    4.27              293354             474.061        -6.24194e+06         1.77724e+08
    4.29              292768             472.835        -6.23296e+06         1.77491e+08
    4.31              292180             471.607        -6.22395e+06         1.77258e+08
    4.33              291590             470.378        -6.21489e+06         1.77023e+08
    4.35              290998             469.146         -6.2058e+06         1.76787e+08
    4.37              290405             467.912        -6.19666e+06         1.76551e+08
    4.39              289810             466.676        -6.18748e+06         1.76313e+08
    4.41              289212             465.439        -6.17826e+06         1.76075e+08
    4.43              288613             464.199          -6.169e+06         1.75835e+08
    4.45              288013             462.958         -6.1597e+06         1.75594e+08
